LabVIEW Measurement
Writer_Version	2
Reader_Version	2
Separator	Tab
Decimal_Separator	.
Multi_Headings	Yes
X_Columns	No
Time_Pref	Relative
Operator	light
Date	2017/06/13
Time	19:49:00.9943318367004394532
***End_of_Header***	
	
Channels	2	
Samples	3398	3398	
Date	2017/06/13	2017/06/13	
Time	19:49:00.9943318367004394532	19:49:00.9943318367004394532	
X_Dimension	Time	Time	
X0	0.0000000000000000E+0	0.0000000000000000E+0	
Delta_X	1.000000	1.000000	
***End_of_Header***			
X_Value	X Array	Y Array	Comment
	0.000000	8.375000
	0.995000	8.375000
	1.005000	8.366026
	1.995000	8.366026
	2.005000	8.357051
	2.995000	8.357051
	3.005000	8.348077
	3.995000	8.348077
	4.005000	8.339103
	4.995000	8.339103
	5.005000	8.330128
	5.995000	8.330128
	6.005000	8.321154
	6.995000	8.321154
	7.005000	8.312179
	7.995000	8.312179
	8.005000	8.303205
	8.995000	8.303205
	9.005000	8.294231
	9.995000	8.294231
	10.005000	8.285256
	10.995000	8.285256
	11.005000	8.276282
	11.995000	8.276282
	12.005000	8.267308
	12.995000	8.267308
	13.005000	8.258333
	13.995000	8.258333
	14.005000	8.249359
	14.995000	8.249359
	15.005000	8.240385
	15.995000	8.240385
	16.005000	8.231410
	16.995000	8.231410
	17.005000	8.222436
	17.995000	8.222436
	18.005000	8.213462
	18.995000	8.213462
	19.005000	8.204487
	19.995000	8.204487
	20.005000	8.195513
	20.995000	8.195513
	21.005000	8.186538
	21.995000	8.186538
	22.005000	8.177564
	22.995000	8.177564
	23.005000	8.168590
	23.995000	8.168590
	24.005000	8.159615
	24.995000	8.159615
	25.005000	8.150641
	25.995000	8.150641
	26.005000	8.141667
	26.995000	8.141667
	27.005000	8.132692
	27.995000	8.132692
	28.005000	8.123718
	28.995000	8.123718
	29.005000	8.114744
	29.995000	8.114744
	30.005000	8.105769
	30.995000	8.105769
	31.005000	8.096795
	31.995000	8.096795
	32.005000	8.087821
	32.995000	8.087821
	33.005000	8.078846
	33.995000	8.078846
	34.005000	8.069872
	34.995000	8.069872
	35.005000	8.060897
	35.995000	8.060897
	36.005000	8.051923
	36.995000	8.051923
	37.005000	8.042949
	37.995000	8.042949
	38.005000	8.033974
	38.995000	8.033974
	39.005000	8.025000
	40.000000	8.025000
	40.995000	8.025000
	41.005000	8.033974
	41.995000	8.033974
	42.005000	8.042949
	42.995000	8.042949
	43.005000	8.051923
	43.995000	8.051923
	44.005000	8.060897
	44.995000	8.060897
	45.005000	8.069872
	45.995000	8.069872
	46.005000	8.078846
	46.995000	8.078846
	47.005000	8.087821
	47.995000	8.087821
	48.005000	8.096795
	48.995000	8.096795
	49.005000	8.105769
	49.995000	8.105769
	50.005000	8.114744
	50.995000	8.114744
	51.005000	8.123718
	51.995000	8.123718
	52.005000	8.132692
	52.995000	8.132692
	53.005000	8.141667
	53.995000	8.141667
	54.005000	8.150641
	54.995000	8.150641
	55.005000	8.159615
	55.995000	8.159615
	56.005000	8.168590
	56.995000	8.168590
	57.005000	8.177564
	57.995000	8.177564
	58.005000	8.186538
	58.995000	8.186538
	59.005000	8.195513
	59.995000	8.195513
	60.005000	8.204487
	60.995000	8.204487
	61.005000	8.213462
	61.995000	8.213462
	62.005000	8.222436
	62.995000	8.222436
	63.005000	8.231410
	63.995000	8.231410
	64.005000	8.240385
	64.995000	8.240385
	65.005000	8.249359
	65.995000	8.249359
	66.005000	8.258333
	66.995000	8.258333
	67.005000	8.267308
	67.995000	8.267308
	68.005000	8.276282
	68.995000	8.276282
	69.005000	8.285256
	69.995000	8.285256
	70.005000	8.294231
	70.995000	8.294231
	71.005000	8.303205
	71.995000	8.303205
	72.005000	8.312179
	72.995000	8.312179
	73.005000	8.321154
	73.995000	8.321154
	74.005000	8.330128
	74.995000	8.330128
	75.005000	8.339103
	75.995000	8.339103
	76.005000	8.348077
	76.995000	8.348077
	77.005000	8.357051
	77.995000	8.357051
	78.005000	8.366026
	78.995000	8.366026
	79.005000	8.375000
	80.000000	8.375000
	80.995000	8.375000
	81.005000	8.366026
	81.995000	8.366026
	82.005000	8.357051
	82.995000	8.357051
	83.005000	8.348077
	83.995000	8.348077
	84.005000	8.339103
	84.995000	8.339103
	85.005000	8.330128
	85.995000	8.330128
	86.005000	8.321154
	86.995000	8.321154
	87.005000	8.312179
	87.995000	8.312179
	88.005000	8.303205
	88.995000	8.303205
	89.005000	8.294231
	89.995000	8.294231
	90.005000	8.285256
	90.995000	8.285256
	91.005000	8.276282
	91.995000	8.276282
	92.005000	8.267308
	92.995000	8.267308
	93.005000	8.258333
	93.995000	8.258333
	94.005000	8.249359
	94.995000	8.249359
	95.005000	8.240385
	95.995000	8.240385
	96.005000	8.231410
	96.995000	8.231410
	97.005000	8.222436
	97.995000	8.222436
	98.005000	8.213462
	98.995000	8.213462
	99.005000	8.204487
	99.995000	8.204487
	100.005000	8.195513
	100.995000	8.195513
	101.005000	8.186538
	101.995000	8.186538
	102.005000	8.177564
	102.995000	8.177564
	103.005000	8.168590
	103.995000	8.168590
	104.005000	8.159615
	104.995000	8.159615
	105.005000	8.150641
	105.995000	8.150641
	106.005000	8.141667
	106.995000	8.141667
	107.005000	8.132692
	107.995000	8.132692
	108.005000	8.123718
	108.995000	8.123718
	109.005000	8.114744
	109.995000	8.114744
	110.005000	8.105769
	110.995000	8.105769
	111.005000	8.096795
	111.995000	8.096795
	112.005000	8.087821
	112.995000	8.087821
	113.005000	8.078846
	113.995000	8.078846
	114.005000	8.069872
	114.995000	8.069872
	115.005000	8.060897
	115.995000	8.060897
	116.005000	8.051923
	116.995000	8.051923
	117.005000	8.042949
	117.995000	8.042949
	118.005000	8.033974
	118.995000	8.033974
	119.005000	8.025000
	120.000000	8.025000
	120.995000	8.025000
	121.005000	8.033974
	121.995000	8.033974
	122.005000	8.042949
	122.995000	8.042949
	123.005000	8.051923
	123.995000	8.051923
	124.005000	8.060897
	124.995000	8.060897
	125.005000	8.069872
	125.995000	8.069872
	126.005000	8.078846
	126.995000	8.078846
	127.005000	8.087821
	127.995000	8.087821
	128.005000	8.096795
	128.995000	8.096795
	129.005000	8.105769
	129.995000	8.105769
	130.005000	8.114744
	130.995000	8.114744
	131.005000	8.123718
	131.995000	8.123718
	132.005000	8.132692
	132.995000	8.132692
	133.005000	8.141667
	133.995000	8.141667
	134.005000	8.150641
	134.995000	8.150641
	135.005000	8.159615
	135.995000	8.159615
	136.005000	8.168590
	136.995000	8.168590
	137.005000	8.177564
	137.995000	8.177564
	138.005000	8.186538
	138.995000	8.186538
	139.005000	8.195513
	139.995000	8.195513
	140.005000	8.204487
	140.995000	8.204487
	141.005000	8.213462
	141.995000	8.213462
	142.005000	8.222436
	142.995000	8.222436
	143.005000	8.231410
	143.995000	8.231410
	144.005000	8.240385
	144.995000	8.240385
	145.005000	8.249359
	145.995000	8.249359
	146.005000	8.258333
	146.995000	8.258333
	147.005000	8.267308
	147.995000	8.267308
	148.005000	8.276282
	148.995000	8.276282
	149.005000	8.285256
	149.995000	8.285256
	150.005000	8.294231
	150.995000	8.294231
	151.005000	8.303205
	151.995000	8.303205
	152.005000	8.312179
	152.995000	8.312179
	153.005000	8.321154
	153.995000	8.321154
	154.005000	8.330128
	154.995000	8.330128
	155.005000	8.339103
	155.995000	8.339103
	156.005000	8.348077
	156.995000	8.348077
	157.005000	8.357051
	157.995000	8.357051
	158.005000	8.366026
	158.995000	8.366026
	159.005000	8.375000
	160.000000	8.375000
	160.995000	8.375000
	161.005000	8.366026
	161.995000	8.366026
	162.005000	8.357051
	162.995000	8.357051
	163.005000	8.348077
	163.995000	8.348077
	164.005000	8.339103
	164.995000	8.339103
	165.005000	8.330128
	165.995000	8.330128
	166.005000	8.321154
	166.995000	8.321154
	167.005000	8.312179
	167.995000	8.312179
	168.005000	8.303205
	168.995000	8.303205
	169.005000	8.294231
	169.995000	8.294231
	170.005000	8.285256
	170.995000	8.285256
	171.005000	8.276282
	171.995000	8.276282
	172.005000	8.267308
	172.995000	8.267308
	173.005000	8.258333
	173.995000	8.258333
	174.005000	8.249359
	174.995000	8.249359
	175.005000	8.240385
	175.995000	8.240385
	176.005000	8.231410
	176.995000	8.231410
	177.005000	8.222436
	177.995000	8.222436
	178.005000	8.213462
	178.995000	8.213462
	179.005000	8.204487
	179.995000	8.204487
	180.005000	8.195513
	180.995000	8.195513
	181.005000	8.186538
	181.995000	8.186538
	182.005000	8.177564
	182.995000	8.177564
	183.005000	8.168590
	183.995000	8.168590
	184.005000	8.159615
	184.995000	8.159615
	185.005000	8.150641
	185.995000	8.150641
	186.005000	8.141667
	186.995000	8.141667
	187.005000	8.132692
	187.995000	8.132692
	188.005000	8.123718
	188.995000	8.123718
	189.005000	8.114744
	189.995000	8.114744
	190.005000	8.105769
	190.995000	8.105769
	191.005000	8.096795
	191.995000	8.096795
	192.005000	8.087821
	192.995000	8.087821
	193.005000	8.078846
	193.995000	8.078846
	194.005000	8.069872
	194.995000	8.069872
	195.005000	8.060897
	195.995000	8.060897
	196.005000	8.051923
	196.995000	8.051923
	197.005000	8.042949
	197.995000	8.042949
	198.005000	8.033974
	198.995000	8.033974
	199.005000	8.025000
	200.000000	8.025000
	200.995000	8.025000
	201.005000	8.033974
	201.995000	8.033974
	202.005000	8.042949
	202.995000	8.042949
	203.005000	8.051923
	203.995000	8.051923
	204.005000	8.060897
	204.995000	8.060897
	205.005000	8.069872
	205.995000	8.069872
	206.005000	8.078846
	206.995000	8.078846
	207.005000	8.087821
	207.995000	8.087821
	208.005000	8.096795
	208.995000	8.096795
	209.005000	8.105769
	209.995000	8.105769
	210.005000	8.114744
	210.995000	8.114744
	211.005000	8.123718
	211.995000	8.123718
	212.005000	8.132692
	212.995000	8.132692
	213.005000	8.141667
	213.995000	8.141667
	214.005000	8.150641
	214.995000	8.150641
	215.005000	8.159615
	215.995000	8.159615
	216.005000	8.168590
	216.995000	8.168590
	217.005000	8.177564
	217.995000	8.177564
	218.005000	8.186538
	218.995000	8.186538
	219.005000	8.195513
	219.995000	8.195513
	220.005000	8.204487
	220.995000	8.204487
	221.005000	8.213462
	221.995000	8.213462
	222.005000	8.222436
	222.995000	8.222436
	223.005000	8.231410
	223.995000	8.231410
	224.005000	8.240385
	224.995000	8.240385
	225.005000	8.249359
	225.995000	8.249359
	226.005000	8.258333
	226.995000	8.258333
	227.005000	8.267308
	227.995000	8.267308
	228.005000	8.276282
	228.995000	8.276282
	229.005000	8.285256
	229.995000	8.285256
	230.005000	8.294231
	230.995000	8.294231
	231.005000	8.303205
	231.995000	8.303205
	232.005000	8.312179
	232.995000	8.312179
	233.005000	8.321154
	233.995000	8.321154
	234.005000	8.330128
	234.995000	8.330128
	235.005000	8.339103
	235.995000	8.339103
	236.005000	8.348077
	236.995000	8.348077
	237.005000	8.357051
	237.995000	8.357051
	238.005000	8.366026
	238.995000	8.366026
	239.005000	8.375000
	240.000000	8.375000
	240.995000	8.375000
	241.005000	8.366026
	241.995000	8.366026
	242.005000	8.357051
	242.995000	8.357051
	243.005000	8.348077
	243.995000	8.348077
	244.005000	8.339103
	244.995000	8.339103
	245.005000	8.330128
	245.995000	8.330128
	246.005000	8.321154
	246.995000	8.321154
	247.005000	8.312179
	247.995000	8.312179
	248.005000	8.303205
	248.995000	8.303205
	249.005000	8.294231
	249.995000	8.294231
	250.005000	8.285256
	250.995000	8.285256
	251.005000	8.276282
	251.995000	8.276282
	252.005000	8.267308
	252.995000	8.267308
	253.005000	8.258333
	253.995000	8.258333
	254.005000	8.249359
	254.995000	8.249359
	255.005000	8.240385
	255.995000	8.240385
	256.005000	8.231410
	256.995000	8.231410
	257.005000	8.222436
	257.995000	8.222436
	258.005000	8.213462
	258.995000	8.213462
	259.005000	8.204487
	259.995000	8.204487
	260.005000	8.195513
	260.995000	8.195513
	261.005000	8.186538
	261.995000	8.186538
	262.005000	8.177564
	262.995000	8.177564
	263.005000	8.168590
	263.995000	8.168590
	264.005000	8.159615
	264.995000	8.159615
	265.005000	8.150641
	265.995000	8.150641
	266.005000	8.141667
	266.995000	8.141667
	267.005000	8.132692
	267.995000	8.132692
	268.005000	8.123718
	268.995000	8.123718
	269.005000	8.114744
	269.995000	8.114744
	270.005000	8.105769
	270.995000	8.105769
	271.005000	8.096795
	271.995000	8.096795
	272.005000	8.087821
	272.995000	8.087821
	273.005000	8.078846
	273.995000	8.078846
	274.005000	8.069872
	274.995000	8.069872
	275.005000	8.060897
	275.995000	8.060897
	276.005000	8.051923
	276.995000	8.051923
	277.005000	8.042949
	277.995000	8.042949
	278.005000	8.033974
	278.995000	8.033974
	279.005000	8.025000
	280.000000	8.025000
	280.995000	8.025000
	281.005000	8.033974
	281.995000	8.033974
	282.005000	8.042949
	282.995000	8.042949
	283.005000	8.051923
	283.995000	8.051923
	284.005000	8.060897
	284.995000	8.060897
	285.005000	8.069872
	285.995000	8.069872
	286.005000	8.078846
	286.995000	8.078846
	287.005000	8.087821
	287.995000	8.087821
	288.005000	8.096795
	288.995000	8.096795
	289.005000	8.105769
	289.995000	8.105769
	290.005000	8.114744
	290.995000	8.114744
	291.005000	8.123718
	291.995000	8.123718
	292.005000	8.132692
	292.995000	8.132692
	293.005000	8.141667
	293.995000	8.141667
	294.005000	8.150641
	294.995000	8.150641
	295.005000	8.159615
	295.995000	8.159615
	296.005000	8.168590
	296.995000	8.168590
	297.005000	8.177564
	297.995000	8.177564
	298.005000	8.186538
	298.995000	8.186538
	299.005000	8.195513
	299.995000	8.195513
	300.005000	8.204487
	300.995000	8.204487
	301.005000	8.213462
	301.995000	8.213462
	302.005000	8.222436
	302.995000	8.222436
	303.005000	8.231410
	303.995000	8.231410
	304.005000	8.240385
	304.995000	8.240385
	305.005000	8.249359
	305.995000	8.249359
	306.005000	8.258333
	306.995000	8.258333
	307.005000	8.267308
	307.995000	8.267308
	308.005000	8.276282
	308.995000	8.276282
	309.005000	8.285256
	309.995000	8.285256
	310.005000	8.294231
	310.995000	8.294231
	311.005000	8.303205
	311.995000	8.303205
	312.005000	8.312179
	312.995000	8.312179
	313.005000	8.321154
	313.995000	8.321154
	314.005000	8.330128
	314.995000	8.330128
	315.005000	8.339103
	315.995000	8.339103
	316.005000	8.348077
	316.995000	8.348077
	317.005000	8.357051
	317.995000	8.357051
	318.005000	8.366026
	318.995000	8.366026
	319.005000	8.375000
	320.000000	8.375000
	320.995000	8.375000
	321.005000	8.366026
	321.995000	8.366026
	322.005000	8.357051
	322.995000	8.357051
	323.005000	8.348077
	323.995000	8.348077
	324.005000	8.339103
	324.995000	8.339103
	325.005000	8.330128
	325.995000	8.330128
	326.005000	8.321154
	326.995000	8.321154
	327.005000	8.312179
	327.995000	8.312179
	328.005000	8.303205
	328.995000	8.303205
	329.005000	8.294231
	329.995000	8.294231
	330.005000	8.285256
	330.995000	8.285256
	331.005000	8.276282
	331.995000	8.276282
	332.005000	8.267308
	332.995000	8.267308
	333.005000	8.258333
	333.995000	8.258333
	334.005000	8.249359
	334.995000	8.249359
	335.005000	8.240385
	335.995000	8.240385
	336.005000	8.231410
	336.995000	8.231410
	337.005000	8.222436
	337.995000	8.222436
	338.005000	8.213462
	338.995000	8.213462
	339.005000	8.204487
	339.995000	8.204487
	340.005000	8.195513
	340.995000	8.195513
	341.005000	8.186538
	341.995000	8.186538
	342.005000	8.177564
	342.995000	8.177564
	343.005000	8.168590
	343.995000	8.168590
	344.005000	8.159615
	344.995000	8.159615
	345.005000	8.150641
	345.995000	8.150641
	346.005000	8.141667
	346.995000	8.141667
	347.005000	8.132692
	347.995000	8.132692
	348.005000	8.123718
	348.995000	8.123718
	349.005000	8.114744
	349.995000	8.114744
	350.005000	8.105769
	350.995000	8.105769
	351.005000	8.096795
	351.995000	8.096795
	352.005000	8.087821
	352.995000	8.087821
	353.005000	8.078846
	353.995000	8.078846
	354.005000	8.069872
	354.995000	8.069872
	355.005000	8.060897
	355.995000	8.060897
	356.005000	8.051923
	356.995000	8.051923
	357.005000	8.042949
	357.995000	8.042949
	358.005000	8.033974
	358.995000	8.033974
	359.005000	8.025000
	360.000000	8.025000
	360.995000	8.025000
	361.005000	8.033974
	361.995000	8.033974
	362.005000	8.042949
	362.995000	8.042949
	363.005000	8.051923
	363.995000	8.051923
	364.005000	8.060897
	364.995000	8.060897
	365.005000	8.069872
	365.995000	8.069872
	366.005000	8.078846
	366.995000	8.078846
	367.005000	8.087821
	367.995000	8.087821
	368.005000	8.096795
	368.995000	8.096795
	369.005000	8.105769
	369.995000	8.105769
	370.005000	8.114744
	370.995000	8.114744
	371.005000	8.123718
	371.995000	8.123718
	372.005000	8.132692
	372.995000	8.132692
	373.005000	8.141667
	373.995000	8.141667
	374.005000	8.150641
	374.995000	8.150641
	375.005000	8.159615
	375.995000	8.159615
	376.005000	8.168590
	376.995000	8.168590
	377.005000	8.177564
	377.995000	8.177564
	378.005000	8.186538
	378.995000	8.186538
	379.005000	8.195513
	379.995000	8.195513
	380.005000	8.204487
	380.995000	8.204487
	381.005000	8.213462
	381.995000	8.213462
	382.005000	8.222436
	382.995000	8.222436
	383.005000	8.231410
	383.995000	8.231410
	384.005000	8.240385
	384.995000	8.240385
	385.005000	8.249359
	385.995000	8.249359
	386.005000	8.258333
	386.995000	8.258333
	387.005000	8.267308
	387.995000	8.267308
	388.005000	8.276282
	388.995000	8.276282
	389.005000	8.285256
	389.995000	8.285256
	390.005000	8.294231
	390.995000	8.294231
	391.005000	8.303205
	391.995000	8.303205
	392.005000	8.312179
	392.995000	8.312179
	393.005000	8.321154
	393.995000	8.321154
	394.005000	8.330128
	394.995000	8.330128
	395.005000	8.339103
	395.995000	8.339103
	396.005000	8.348077
	396.995000	8.348077
	397.005000	8.357051
	397.995000	8.357051
	398.005000	8.366026
	398.995000	8.366026
	399.005000	8.375000
	400.000000	8.375000
	400.995000	8.375000
	401.005000	8.366026
	401.995000	8.366026
	402.005000	8.357051
	402.995000	8.357051
	403.005000	8.348077
	403.995000	8.348077
	404.005000	8.339103
	404.995000	8.339103
	405.005000	8.330128
	405.995000	8.330128
	406.005000	8.321154
	406.995000	8.321154
	407.005000	8.312179
	407.995000	8.312179
	408.005000	8.303205
	408.995000	8.303205
	409.005000	8.294231
	409.995000	8.294231
	410.005000	8.285256
	410.995000	8.285256
	411.005000	8.276282
	411.995000	8.276282
	412.005000	8.267308
	412.995000	8.267308
	413.005000	8.258333
	413.995000	8.258333
	414.005000	8.249359
	414.995000	8.249359
	415.005000	8.240385
	415.995000	8.240385
	416.005000	8.231410
	416.995000	8.231410
	417.005000	8.222436
	417.995000	8.222436
	418.005000	8.213462
	418.995000	8.213462
	419.005000	8.204487
	419.995000	8.204487
	420.005000	8.195513
	420.995000	8.195513
	421.005000	8.186538
	421.995000	8.186538
	422.005000	8.177564
	422.995000	8.177564
	423.005000	8.168590
	423.995000	8.168590
	424.005000	8.159615
	424.995000	8.159615
	425.005000	8.150641
	425.995000	8.150641
	426.005000	8.141667
	426.995000	8.141667
	427.005000	8.132692
	427.995000	8.132692
	428.005000	8.123718
	428.995000	8.123718
	429.005000	8.114744
	429.995000	8.114744
	430.005000	8.105769
	430.995000	8.105769
	431.005000	8.096795
	431.995000	8.096795
	432.005000	8.087821
	432.995000	8.087821
	433.005000	8.078846
	433.995000	8.078846
	434.005000	8.069872
	434.995000	8.069872
	435.005000	8.060897
	435.995000	8.060897
	436.005000	8.051923
	436.995000	8.051923
	437.005000	8.042949
	437.995000	8.042949
	438.005000	8.033974
	438.995000	8.033974
	439.005000	8.025000
	440.000000	8.025000
	440.995000	8.025000
	441.005000	8.033974
	441.995000	8.033974
	442.005000	8.042949
	442.995000	8.042949
	443.005000	8.051923
	443.995000	8.051923
	444.005000	8.060897
	444.995000	8.060897
	445.005000	8.069872
	445.995000	8.069872
	446.005000	8.078846
	446.995000	8.078846
	447.005000	8.087821
	447.995000	8.087821
	448.005000	8.096795
	448.995000	8.096795
	449.005000	8.105769
	449.995000	8.105769
	450.005000	8.114744
	450.995000	8.114744
	451.005000	8.123718
	451.995000	8.123718
	452.005000	8.132692
	452.995000	8.132692
	453.005000	8.141667
	453.995000	8.141667
	454.005000	8.150641
	454.995000	8.150641
	455.005000	8.159615
	455.995000	8.159615
	456.005000	8.168590
	456.995000	8.168590
	457.005000	8.177564
	457.995000	8.177564
	458.005000	8.186538
	458.995000	8.186538
	459.005000	8.195513
	459.995000	8.195513
	460.005000	8.204487
	460.995000	8.204487
	461.005000	8.213462
	461.995000	8.213462
	462.005000	8.222436
	462.995000	8.222436
	463.005000	8.231410
	463.995000	8.231410
	464.005000	8.240385
	464.995000	8.240385
	465.005000	8.249359
	465.995000	8.249359
	466.005000	8.258333
	466.995000	8.258333
	467.005000	8.267308
	467.995000	8.267308
	468.005000	8.276282
	468.995000	8.276282
	469.005000	8.285256
	469.995000	8.285256
	470.005000	8.294231
	470.995000	8.294231
	471.005000	8.303205
	471.995000	8.303205
	472.005000	8.312179
	472.995000	8.312179
	473.005000	8.321154
	473.995000	8.321154
	474.005000	8.330128
	474.995000	8.330128
	475.005000	8.339103
	475.995000	8.339103
	476.005000	8.348077
	476.995000	8.348077
	477.005000	8.357051
	477.995000	8.357051
	478.005000	8.366026
	478.995000	8.366026
	479.005000	8.375000
	480.000000	8.375000
	480.995000	8.375000
	481.005000	8.366026
	481.995000	8.366026
	482.005000	8.357051
	482.995000	8.357051
	483.005000	8.348077
	483.995000	8.348077
	484.005000	8.339103
	484.995000	8.339103
	485.005000	8.330128
	485.995000	8.330128
	486.005000	8.321154
	486.995000	8.321154
	487.005000	8.312179
	487.995000	8.312179
	488.005000	8.303205
	488.995000	8.303205
	489.005000	8.294231
	489.995000	8.294231
	490.005000	8.285256
	490.995000	8.285256
	491.005000	8.276282
	491.995000	8.276282
	492.005000	8.267308
	492.995000	8.267308
	493.005000	8.258333
	493.995000	8.258333
	494.005000	8.249359
	494.995000	8.249359
	495.005000	8.240385
	495.995000	8.240385
	496.005000	8.231410
	496.995000	8.231410
	497.005000	8.222436
	497.995000	8.222436
	498.005000	8.213462
	498.995000	8.213462
	499.005000	8.204487
	499.995000	8.204487
	500.005000	8.195513
	500.995000	8.195513
	501.005000	8.186538
	501.995000	8.186538
	502.005000	8.177564
	502.995000	8.177564
	503.005000	8.168590
	503.995000	8.168590
	504.005000	8.159615
	504.995000	8.159615
	505.005000	8.150641
	505.995000	8.150641
	506.005000	8.141667
	506.995000	8.141667
	507.005000	8.132692
	507.995000	8.132692
	508.005000	8.123718
	508.995000	8.123718
	509.005000	8.114744
	509.995000	8.114744
	510.005000	8.105769
	510.995000	8.105769
	511.005000	8.096795
	511.995000	8.096795
	512.005000	8.087821
	512.995000	8.087821
	513.005000	8.078846
	513.995000	8.078846
	514.005000	8.069872
	514.995000	8.069872
	515.005000	8.060897
	515.995000	8.060897
	516.005000	8.051923
	516.995000	8.051923
	517.005000	8.042949
	517.995000	8.042949
	518.005000	8.033974
	518.995000	8.033974
	519.005000	8.025000
	520.000000	8.025000
	520.995000	8.025000
	521.005000	8.033974
	521.995000	8.033974
	522.005000	8.042949
	522.995000	8.042949
	523.005000	8.051923
	523.995000	8.051923
	524.005000	8.060897
	524.995000	8.060897
	525.005000	8.069872
	525.995000	8.069872
	526.005000	8.078846
	526.995000	8.078846
	527.005000	8.087821
	527.995000	8.087821
	528.005000	8.096795
	528.995000	8.096795
	529.005000	8.105769
	529.995000	8.105769
	530.005000	8.114744
	530.995000	8.114744
	531.005000	8.123718
	531.995000	8.123718
	532.005000	8.132692
	532.995000	8.132692
	533.005000	8.141667
	533.995000	8.141667
	534.005000	8.150641
	534.995000	8.150641
	535.005000	8.159615
	535.995000	8.159615
	536.005000	8.168590
	536.995000	8.168590
	537.005000	8.177564
	537.995000	8.177564
	538.005000	8.186538
	538.995000	8.186538
	539.005000	8.195513
	539.995000	8.195513
	540.005000	8.204487
	540.995000	8.204487
	541.005000	8.213462
	541.995000	8.213462
	542.005000	8.222436
	542.995000	8.222436
	543.005000	8.231410
	543.995000	8.231410
	544.005000	8.240385
	544.995000	8.240385
	545.005000	8.249359
	545.995000	8.249359
	546.005000	8.258333
	546.995000	8.258333
	547.005000	8.267308
	547.995000	8.267308
	548.005000	8.276282
	548.995000	8.276282
	549.005000	8.285256
	549.995000	8.285256
	550.005000	8.294231
	550.995000	8.294231
	551.005000	8.303205
	551.995000	8.303205
	552.005000	8.312179
	552.995000	8.312179
	553.005000	8.321154
	553.995000	8.321154
	554.005000	8.330128
	554.995000	8.330128
	555.005000	8.339103
	555.995000	8.339103
	556.005000	8.348077
	556.995000	8.348077
	557.005000	8.357051
	557.995000	8.357051
	558.005000	8.366026
	558.995000	8.366026
	559.005000	8.375000
	560.000000	8.375000
	560.995000	8.375000
	561.005000	8.366026
	561.995000	8.366026
	562.005000	8.357051
	562.995000	8.357051
	563.005000	8.348077
	563.995000	8.348077
	564.005000	8.339103
	564.995000	8.339103
	565.005000	8.330128
	565.995000	8.330128
	566.005000	8.321154
	566.995000	8.321154
	567.005000	8.312179
	567.995000	8.312179
	568.005000	8.303205
	568.995000	8.303205
	569.005000	8.294231
	569.995000	8.294231
	570.005000	8.285256
	570.995000	8.285256
	571.005000	8.276282
	571.995000	8.276282
	572.005000	8.267308
	572.995000	8.267308
	573.005000	8.258333
	573.995000	8.258333
	574.005000	8.249359
	574.995000	8.249359
	575.005000	8.240385
	575.995000	8.240385
	576.005000	8.231410
	576.995000	8.231410
	577.005000	8.222436
	577.995000	8.222436
	578.005000	8.213462
	578.995000	8.213462
	579.005000	8.204487
	579.995000	8.204487
	580.005000	8.195513
	580.995000	8.195513
	581.005000	8.186538
	581.995000	8.186538
	582.005000	8.177564
	582.995000	8.177564
	583.005000	8.168590
	583.995000	8.168590
	584.005000	8.159615
	584.995000	8.159615
	585.005000	8.150641
	585.995000	8.150641
	586.005000	8.141667
	586.995000	8.141667
	587.005000	8.132692
	587.995000	8.132692
	588.005000	8.123718
	588.995000	8.123718
	589.005000	8.114744
	589.995000	8.114744
	590.005000	8.105769
	590.995000	8.105769
	591.005000	8.096795
	591.995000	8.096795
	592.005000	8.087821
	592.995000	8.087821
	593.005000	8.078846
	593.995000	8.078846
	594.005000	8.069872
	594.995000	8.069872
	595.005000	8.060897
	595.995000	8.060897
	596.005000	8.051923
	596.995000	8.051923
	597.005000	8.042949
	597.995000	8.042949
	598.005000	8.033974
	598.995000	8.033974
	599.005000	8.025000
	600.000000	8.025000
	600.995000	8.025000
	601.005000	8.033974
	601.995000	8.033974
	602.005000	8.042949
	602.995000	8.042949
	603.005000	8.051923
	603.995000	8.051923
	604.005000	8.060897
	604.995000	8.060897
	605.005000	8.069872
	605.995000	8.069872
	606.005000	8.078846
	606.995000	8.078846
	607.005000	8.087821
	607.995000	8.087821
	608.005000	8.096795
	608.995000	8.096795
	609.005000	8.105769
	609.995000	8.105769
	610.005000	8.114744
	610.995000	8.114744
	611.005000	8.123718
	611.995000	8.123718
	612.005000	8.132692
	612.995000	8.132692
	613.005000	8.141667
	613.995000	8.141667
	614.005000	8.150641
	614.995000	8.150641
	615.005000	8.159615
	615.995000	8.159615
	616.005000	8.168590
	616.995000	8.168590
	617.005000	8.177564
	617.995000	8.177564
	618.005000	8.186538
	618.995000	8.186538
	619.005000	8.195513
	619.995000	8.195513
	620.005000	8.204487
	620.995000	8.204487
	621.005000	8.213462
	621.995000	8.213462
	622.005000	8.222436
	622.995000	8.222436
	623.005000	8.231410
	623.995000	8.231410
	624.005000	8.240385
	624.995000	8.240385
	625.005000	8.249359
	625.995000	8.249359
	626.005000	8.258333
	626.995000	8.258333
	627.005000	8.267308
	627.995000	8.267308
	628.005000	8.276282
	628.995000	8.276282
	629.005000	8.285256
	629.995000	8.285256
	630.005000	8.294231
	630.995000	8.294231
	631.005000	8.303205
	631.995000	8.303205
	632.005000	8.312179
	632.995000	8.312179
	633.005000	8.321154
	633.995000	8.321154
	634.005000	8.330128
	634.995000	8.330128
	635.005000	8.339103
	635.995000	8.339103
	636.005000	8.348077
	636.995000	8.348077
	637.005000	8.357051
	637.995000	8.357051
	638.005000	8.366026
	638.995000	8.366026
	639.005000	8.375000
	640.000000	8.375000
	640.995000	8.375000
	641.005000	8.366026
	641.995000	8.366026
	642.005000	8.357051
	642.995000	8.357051
	643.005000	8.348077
	643.995000	8.348077
	644.005000	8.339103
	644.995000	8.339103
	645.005000	8.330128
	645.995000	8.330128
	646.005000	8.321154
	646.995000	8.321154
	647.005000	8.312179
	647.995000	8.312179
	648.005000	8.303205
	648.995000	8.303205
	649.005000	8.294231
	649.995000	8.294231
	650.005000	8.285256
	650.995000	8.285256
	651.005000	8.276282
	651.995000	8.276282
	652.005000	8.267308
	652.995000	8.267308
	653.005000	8.258333
	653.995000	8.258333
	654.005000	8.249359
	654.995000	8.249359
	655.005000	8.240385
	655.995000	8.240385
	656.005000	8.231410
	656.995000	8.231410
	657.005000	8.222436
	657.995000	8.222436
	658.005000	8.213462
	658.995000	8.213462
	659.005000	8.204487
	659.995000	8.204487
	660.005000	8.195513
	660.995000	8.195513
	661.005000	8.186538
	661.995000	8.186538
	662.005000	8.177564
	662.995000	8.177564
	663.005000	8.168590
	663.995000	8.168590
	664.005000	8.159615
	664.995000	8.159615
	665.005000	8.150641
	665.995000	8.150641
	666.005000	8.141667
	666.995000	8.141667
	667.005000	8.132692
	667.995000	8.132692
	668.005000	8.123718
	668.995000	8.123718
	669.005000	8.114744
	669.995000	8.114744
	670.005000	8.105769
	670.995000	8.105769
	671.005000	8.096795
	671.995000	8.096795
	672.005000	8.087821
	672.995000	8.087821
	673.005000	8.078846
	673.995000	8.078846
	674.005000	8.069872
	674.995000	8.069872
	675.005000	8.060897
	675.995000	8.060897
	676.005000	8.051923
	676.995000	8.051923
	677.005000	8.042949
	677.995000	8.042949
	678.005000	8.033974
	678.995000	8.033974
	679.005000	8.025000
	680.000000	8.025000
	680.995000	8.025000
	681.005000	8.033974
	681.995000	8.033974
	682.005000	8.042949
	682.995000	8.042949
	683.005000	8.051923
	683.995000	8.051923
	684.005000	8.060897
	684.995000	8.060897
	685.005000	8.069872
	685.995000	8.069872
	686.005000	8.078846
	686.995000	8.078846
	687.005000	8.087821
	687.995000	8.087821
	688.005000	8.096795
	688.995000	8.096795
	689.005000	8.105769
	689.995000	8.105769
	690.005000	8.114744
	690.995000	8.114744
	691.005000	8.123718
	691.995000	8.123718
	692.005000	8.132692
	692.995000	8.132692
	693.005000	8.141667
	693.995000	8.141667
	694.005000	8.150641
	694.995000	8.150641
	695.005000	8.159615
	695.995000	8.159615
	696.005000	8.168590
	696.995000	8.168590
	697.005000	8.177564
	697.995000	8.177564
	698.005000	8.186538
	698.995000	8.186538
	699.005000	8.195513
	699.995000	8.195513
	700.005000	8.204487
	700.995000	8.204487
	701.005000	8.213462
	701.995000	8.213462
	702.005000	8.222436
	702.995000	8.222436
	703.005000	8.231410
	703.995000	8.231410
	704.005000	8.240385
	704.995000	8.240385
	705.005000	8.249359
	705.995000	8.249359
	706.005000	8.258333
	706.995000	8.258333
	707.005000	8.267308
	707.995000	8.267308
	708.005000	8.276282
	708.995000	8.276282
	709.005000	8.285256
	709.995000	8.285256
	710.005000	8.294231
	710.995000	8.294231
	711.005000	8.303205
	711.995000	8.303205
	712.005000	8.312179
	712.995000	8.312179
	713.005000	8.321154
	713.995000	8.321154
	714.005000	8.330128
	714.995000	8.330128
	715.005000	8.339103
	715.995000	8.339103
	716.005000	8.348077
	716.995000	8.348077
	717.005000	8.357051
	717.995000	8.357051
	718.005000	8.366026
	718.995000	8.366026
	719.005000	8.375000
	720.000000	8.375000
	720.995000	8.375000
	721.005000	8.366026
	721.995000	8.366026
	722.005000	8.357051
	722.995000	8.357051
	723.005000	8.348077
	723.995000	8.348077
	724.005000	8.339103
	724.995000	8.339103
	725.005000	8.330128
	725.995000	8.330128
	726.005000	8.321154
	726.995000	8.321154
	727.005000	8.312179
	727.995000	8.312179
	728.005000	8.303205
	728.995000	8.303205
	729.005000	8.294231
	729.995000	8.294231
	730.005000	8.285256
	730.995000	8.285256
	731.005000	8.276282
	731.995000	8.276282
	732.005000	8.267308
	732.995000	8.267308
	733.005000	8.258333
	733.995000	8.258333
	734.005000	8.249359
	734.995000	8.249359
	735.005000	8.240385
	735.995000	8.240385
	736.005000	8.231410
	736.995000	8.231410
	737.005000	8.222436
	737.995000	8.222436
	738.005000	8.213462
	738.995000	8.213462
	739.005000	8.204487
	739.995000	8.204487
	740.005000	8.195513
	740.995000	8.195513
	741.005000	8.186538
	741.995000	8.186538
	742.005000	8.177564
	742.995000	8.177564
	743.005000	8.168590
	743.995000	8.168590
	744.005000	8.159615
	744.995000	8.159615
	745.005000	8.150641
	745.995000	8.150641
	746.005000	8.141667
	746.995000	8.141667
	747.005000	8.132692
	747.995000	8.132692
	748.005000	8.123718
	748.995000	8.123718
	749.005000	8.114744
	749.995000	8.114744
	750.005000	8.105769
	750.995000	8.105769
	751.005000	8.096795
	751.995000	8.096795
	752.005000	8.087821
	752.995000	8.087821
	753.005000	8.078846
	753.995000	8.078846
	754.005000	8.069872
	754.995000	8.069872
	755.005000	8.060897
	755.995000	8.060897
	756.005000	8.051923
	756.995000	8.051923
	757.005000	8.042949
	757.995000	8.042949
	758.005000	8.033974
	758.995000	8.033974
	759.005000	8.025000
	760.000000	8.025000
	760.995000	8.025000
	761.005000	8.033974
	761.995000	8.033974
	762.005000	8.042949
	762.995000	8.042949
	763.005000	8.051923
	763.995000	8.051923
	764.005000	8.060897
	764.995000	8.060897
	765.005000	8.069872
	765.995000	8.069872
	766.005000	8.078846
	766.995000	8.078846
	767.005000	8.087821
	767.995000	8.087821
	768.005000	8.096795
	768.995000	8.096795
	769.005000	8.105769
	769.995000	8.105769
	770.005000	8.114744
	770.995000	8.114744
	771.005000	8.123718
	771.995000	8.123718
	772.005000	8.132692
	772.995000	8.132692
	773.005000	8.141667
	773.995000	8.141667
	774.005000	8.150641
	774.995000	8.150641
	775.005000	8.159615
	775.995000	8.159615
	776.005000	8.168590
	776.995000	8.168590
	777.005000	8.177564
	777.995000	8.177564
	778.005000	8.186538
	778.995000	8.186538
	779.005000	8.195513
	779.995000	8.195513
	780.005000	8.204487
	780.995000	8.204487
	781.005000	8.213462
	781.995000	8.213462
	782.005000	8.222436
	782.995000	8.222436
	783.005000	8.231410
	783.995000	8.231410
	784.005000	8.240385
	784.995000	8.240385
	785.005000	8.249359
	785.995000	8.249359
	786.005000	8.258333
	786.995000	8.258333
	787.005000	8.267308
	787.995000	8.267308
	788.005000	8.276282
	788.995000	8.276282
	789.005000	8.285256
	789.995000	8.285256
	790.005000	8.294231
	790.995000	8.294231
	791.005000	8.303205
	791.995000	8.303205
	792.005000	8.312179
	792.995000	8.312179
	793.005000	8.321154
	793.995000	8.321154
	794.005000	8.330128
	794.995000	8.330128
	795.005000	8.339103
	795.995000	8.339103
	796.005000	8.348077
	796.995000	8.348077
	797.005000	8.357051
	797.995000	8.357051
	798.005000	8.366026
	798.995000	8.366026
	799.005000	8.375000
	800.000000	8.375000
	800.995000	8.375000
	801.005000	8.366026
	801.995000	8.366026
	802.005000	8.357051
	802.995000	8.357051
	803.005000	8.348077
	803.995000	8.348077
	804.005000	8.339103
	804.995000	8.339103
	805.005000	8.330128
	805.995000	8.330128
	806.005000	8.321154
	806.995000	8.321154
	807.005000	8.312179
	807.995000	8.312179
	808.005000	8.303205
	808.995000	8.303205
	809.005000	8.294231
	809.995000	8.294231
	810.005000	8.285256
	810.995000	8.285256
	811.005000	8.276282
	811.995000	8.276282
	812.005000	8.267308
	812.995000	8.267308
	813.005000	8.258333
	813.995000	8.258333
	814.005000	8.249359
	814.995000	8.249359
	815.005000	8.240385
	815.995000	8.240385
	816.005000	8.231410
	816.995000	8.231410
	817.005000	8.222436
	817.995000	8.222436
	818.005000	8.213462
	818.995000	8.213462
	819.005000	8.204487
	819.995000	8.204487
	820.005000	8.195513
	820.995000	8.195513
	821.005000	8.186538
	821.995000	8.186538
	822.005000	8.177564
	822.995000	8.177564
	823.005000	8.168590
	823.995000	8.168590
	824.005000	8.159615
	824.995000	8.159615
	825.005000	8.150641
	825.995000	8.150641
	826.005000	8.141667
	826.995000	8.141667
	827.005000	8.132692
	827.995000	8.132692
	828.005000	8.123718
	828.995000	8.123718
	829.005000	8.114744
	829.995000	8.114744
	830.005000	8.105769
	830.995000	8.105769
	831.005000	8.096795
	831.995000	8.096795
	832.005000	8.087821
	832.995000	8.087821
	833.005000	8.078846
	833.995000	8.078846
	834.005000	8.069872
	834.995000	8.069872
	835.005000	8.060897
	835.995000	8.060897
	836.005000	8.051923
	836.995000	8.051923
	837.005000	8.042949
	837.995000	8.042949
	838.005000	8.033974
	838.995000	8.033974
	839.005000	8.025000
	840.000000	8.025000
	840.995000	8.025000
	841.005000	8.033974
	841.995000	8.033974
	842.005000	8.042949
	842.995000	8.042949
	843.005000	8.051923
	843.995000	8.051923
	844.005000	8.060897
	844.995000	8.060897
	845.005000	8.069872
	845.995000	8.069872
	846.005000	8.078846
	846.995000	8.078846
	847.005000	8.087821
	847.995000	8.087821
	848.005000	8.096795
	848.995000	8.096795
	849.005000	8.105769
	849.995000	8.105769
	850.005000	8.114744
	850.995000	8.114744
	851.005000	8.123718
	851.995000	8.123718
	852.005000	8.132692
	852.995000	8.132692
	853.005000	8.141667
	853.995000	8.141667
	854.005000	8.150641
	854.995000	8.150641
	855.005000	8.159615
	855.995000	8.159615
	856.005000	8.168590
	856.995000	8.168590
	857.005000	8.177564
	857.995000	8.177564
	858.005000	8.186538
	858.995000	8.186538
	859.005000	8.195513
	859.995000	8.195513
	860.005000	8.204487
	860.995000	8.204487
	861.005000	8.213462
	861.995000	8.213462
	862.005000	8.222436
	862.995000	8.222436
	863.005000	8.231410
	863.995000	8.231410
	864.005000	8.240385
	864.995000	8.240385
	865.005000	8.249359
	865.995000	8.249359
	866.005000	8.258333
	866.995000	8.258333
	867.005000	8.267308
	867.995000	8.267308
	868.005000	8.276282
	868.995000	8.276282
	869.005000	8.285256
	869.995000	8.285256
	870.005000	8.294231
	870.995000	8.294231
	871.005000	8.303205
	871.995000	8.303205
	872.005000	8.312179
	872.995000	8.312179
	873.005000	8.321154
	873.995000	8.321154
	874.005000	8.330128
	874.995000	8.330128
	875.005000	8.339103
	875.995000	8.339103
	876.005000	8.348077
	876.995000	8.348077
	877.005000	8.357051
	877.995000	8.357051
	878.005000	8.366026
	878.995000	8.366026
	879.005000	8.375000
	880.000000	8.375000
	880.995000	8.375000
	881.005000	8.366026
	881.995000	8.366026
	882.005000	8.357051
	882.995000	8.357051
	883.005000	8.348077
	883.995000	8.348077
	884.005000	8.339103
	884.995000	8.339103
	885.005000	8.330128
	885.995000	8.330128
	886.005000	8.321154
	886.995000	8.321154
	887.005000	8.312179
	887.995000	8.312179
	888.005000	8.303205
	888.995000	8.303205
	889.005000	8.294231
	889.995000	8.294231
	890.005000	8.285256
	890.995000	8.285256
	891.005000	8.276282
	891.995000	8.276282
	892.005000	8.267308
	892.995000	8.267308
	893.005000	8.258333
	893.995000	8.258333
	894.005000	8.249359
	894.995000	8.249359
	895.005000	8.240385
	895.995000	8.240385
	896.005000	8.231410
	896.995000	8.231410
	897.005000	8.222436
	897.995000	8.222436
	898.005000	8.213462
	898.995000	8.213462
	899.005000	8.204487
	899.995000	8.204487
	900.005000	8.195513
	900.995000	8.195513
	901.005000	8.186538
	901.995000	8.186538
	902.005000	8.177564
	902.995000	8.177564
	903.005000	8.168590
	903.995000	8.168590
	904.005000	8.159615
	904.995000	8.159615
	905.005000	8.150641
	905.995000	8.150641
	906.005000	8.141667
	906.995000	8.141667
	907.005000	8.132692
	907.995000	8.132692
	908.005000	8.123718
	908.995000	8.123718
	909.005000	8.114744
	909.995000	8.114744
	910.005000	8.105769
	910.995000	8.105769
	911.005000	8.096795
	911.995000	8.096795
	912.005000	8.087821
	912.995000	8.087821
	913.005000	8.078846
	913.995000	8.078846
	914.005000	8.069872
	914.995000	8.069872
	915.005000	8.060897
	915.995000	8.060897
	916.005000	8.051923
	916.995000	8.051923
	917.005000	8.042949
	917.995000	8.042949
	918.005000	8.033974
	918.995000	8.033974
	919.005000	8.025000
	920.000000	8.025000
	920.995000	8.025000
	921.005000	8.033974
	921.995000	8.033974
	922.005000	8.042949
	922.995000	8.042949
	923.005000	8.051923
	923.995000	8.051923
	924.005000	8.060897
	924.995000	8.060897
	925.005000	8.069872
	925.995000	8.069872
	926.005000	8.078846
	926.995000	8.078846
	927.005000	8.087821
	927.995000	8.087821
	928.005000	8.096795
	928.995000	8.096795
	929.005000	8.105769
	929.995000	8.105769
	930.005000	8.114744
	930.995000	8.114744
	931.005000	8.123718
	931.995000	8.123718
	932.005000	8.132692
	932.995000	8.132692
	933.005000	8.141667
	933.995000	8.141667
	934.005000	8.150641
	934.995000	8.150641
	935.005000	8.159615
	935.995000	8.159615
	936.005000	8.168590
	936.995000	8.168590
	937.005000	8.177564
	937.995000	8.177564
	938.005000	8.186538
	938.995000	8.186538
	939.005000	8.195513
	939.995000	8.195513
	940.005000	8.204487
	940.995000	8.204487
	941.005000	8.213462
	941.995000	8.213462
	942.005000	8.222436
	942.995000	8.222436
	943.005000	8.231410
	943.995000	8.231410
	944.005000	8.240385
	944.995000	8.240385
	945.005000	8.249359
	945.995000	8.249359
	946.005000	8.258333
	946.995000	8.258333
	947.005000	8.267308
	947.995000	8.267308
	948.005000	8.276282
	948.995000	8.276282
	949.005000	8.285256
	949.995000	8.285256
	950.005000	8.294231
	950.995000	8.294231
	951.005000	8.303205
	951.995000	8.303205
	952.005000	8.312179
	952.995000	8.312179
	953.005000	8.321154
	953.995000	8.321154
	954.005000	8.330128
	954.995000	8.330128
	955.005000	8.339103
	955.995000	8.339103
	956.005000	8.348077
	956.995000	8.348077
	957.005000	8.357051
	957.995000	8.357051
	958.005000	8.366026
	958.995000	8.366026
	959.005000	8.375000
	960.000000	8.375000
	960.995000	8.375000
	961.005000	8.366026
	961.995000	8.366026
	962.005000	8.357051
	962.995000	8.357051
	963.005000	8.348077
	963.995000	8.348077
	964.005000	8.339103
	964.995000	8.339103
	965.005000	8.330128
	965.995000	8.330128
	966.005000	8.321154
	966.995000	8.321154
	967.005000	8.312179
	967.995000	8.312179
	968.005000	8.303205
	968.995000	8.303205
	969.005000	8.294231
	969.995000	8.294231
	970.005000	8.285256
	970.995000	8.285256
	971.005000	8.276282
	971.995000	8.276282
	972.005000	8.267308
	972.995000	8.267308
	973.005000	8.258333
	973.995000	8.258333
	974.005000	8.249359
	974.995000	8.249359
	975.005000	8.240385
	975.995000	8.240385
	976.005000	8.231410
	976.995000	8.231410
	977.005000	8.222436
	977.995000	8.222436
	978.005000	8.213462
	978.995000	8.213462
	979.005000	8.204487
	979.995000	8.204487
	980.005000	8.195513
	980.995000	8.195513
	981.005000	8.186538
	981.995000	8.186538
	982.005000	8.177564
	982.995000	8.177564
	983.005000	8.168590
	983.995000	8.168590
	984.005000	8.159615
	984.995000	8.159615
	985.005000	8.150641
	985.995000	8.150641
	986.005000	8.141667
	986.995000	8.141667
	987.005000	8.132692
	987.995000	8.132692
	988.005000	8.123718
	988.995000	8.123718
	989.005000	8.114744
	989.995000	8.114744
	990.005000	8.105769
	990.995000	8.105769
	991.005000	8.096795
	991.995000	8.096795
	992.005000	8.087821
	992.995000	8.087821
	993.005000	8.078846
	993.995000	8.078846
	994.005000	8.069872
	994.995000	8.069872
	995.005000	8.060897
	995.995000	8.060897
	996.005000	8.051923
	996.995000	8.051923
	997.005000	8.042949
	997.995000	8.042949
	998.005000	8.033974
	998.995000	8.033974
	999.005000	8.025000
	1000.000000	8.025000
	1000.995000	8.025000
	1001.005000	8.033974
	1001.995000	8.033974
	1002.005000	8.042949
	1002.995000	8.042949
	1003.005000	8.051923
	1003.995000	8.051923
	1004.005000	8.060897
	1004.995000	8.060897
	1005.005000	8.069872
	1005.995000	8.069872
	1006.005000	8.078846
	1006.995000	8.078846
	1007.005000	8.087821
	1007.995000	8.087821
	1008.005000	8.096795
	1008.995000	8.096795
	1009.005000	8.105769
	1009.995000	8.105769
	1010.005000	8.114744
	1010.995000	8.114744
	1011.005000	8.123718
	1011.995000	8.123718
	1012.005000	8.132692
	1012.995000	8.132692
	1013.005000	8.141667
	1013.995000	8.141667
	1014.005000	8.150641
	1014.995000	8.150641
	1015.005000	8.159615
	1015.995000	8.159615
	1016.005000	8.168590
	1016.995000	8.168590
	1017.005000	8.177564
	1017.995000	8.177564
	1018.005000	8.186538
	1018.995000	8.186538
	1019.005000	8.195513
	1019.995000	8.195513
	1020.005000	8.204487
	1020.995000	8.204487
	1021.005000	8.213462
	1021.995000	8.213462
	1022.005000	8.222436
	1022.995000	8.222436
	1023.005000	8.231410
	1023.995000	8.231410
	1024.005000	8.240385
	1024.995000	8.240385
	1025.005000	8.249359
	1025.995000	8.249359
	1026.005000	8.258333
	1026.995000	8.258333
	1027.005000	8.267308
	1027.995000	8.267308
	1028.005000	8.276282
	1028.995000	8.276282
	1029.005000	8.285256
	1029.995000	8.285256
	1030.005000	8.294231
	1030.995000	8.294231
	1031.005000	8.303205
	1031.995000	8.303205
	1032.005000	8.312179
	1032.995000	8.312179
	1033.005000	8.321154
	1033.995000	8.321154
	1034.005000	8.330128
	1034.995000	8.330128
	1035.005000	8.339103
	1035.995000	8.339103
	1036.005000	8.348077
	1036.995000	8.348077
	1037.005000	8.357051
	1037.995000	8.357051
	1038.005000	8.366026
	1038.995000	8.366026
	1039.005000	8.375000
	1040.000000	8.375000
	1040.995000	8.375000
	1041.005000	8.366026
	1041.995000	8.366026
	1042.005000	8.357051
	1042.995000	8.357051
	1043.005000	8.348077
	1043.995000	8.348077
	1044.005000	8.339103
	1044.995000	8.339103
	1045.005000	8.330128
	1045.995000	8.330128
	1046.005000	8.321154
	1046.995000	8.321154
	1047.005000	8.312179
	1047.995000	8.312179
	1048.005000	8.303205
	1048.995000	8.303205
	1049.005000	8.294231
	1049.995000	8.294231
	1050.005000	8.285256
	1050.995000	8.285256
	1051.005000	8.276282
	1051.995000	8.276282
	1052.005000	8.267308
	1052.995000	8.267308
	1053.005000	8.258333
	1053.995000	8.258333
	1054.005000	8.249359
	1054.995000	8.249359
	1055.005000	8.240385
	1055.995000	8.240385
	1056.005000	8.231410
	1056.995000	8.231410
	1057.005000	8.222436
	1057.995000	8.222436
	1058.005000	8.213462
	1058.995000	8.213462
	1059.005000	8.204487
	1059.995000	8.204487
	1060.005000	8.195513
	1060.995000	8.195513
	1061.005000	8.186538
	1061.995000	8.186538
	1062.005000	8.177564
	1062.995000	8.177564
	1063.005000	8.168590
	1063.995000	8.168590
	1064.005000	8.159615
	1064.995000	8.159615
	1065.005000	8.150641
	1065.995000	8.150641
	1066.005000	8.141667
	1066.995000	8.141667
	1067.005000	8.132692
	1067.995000	8.132692
	1068.005000	8.123718
	1068.995000	8.123718
	1069.005000	8.114744
	1069.995000	8.114744
	1070.005000	8.105769
	1070.995000	8.105769
	1071.005000	8.096795
	1071.995000	8.096795
	1072.005000	8.087821
	1072.995000	8.087821
	1073.005000	8.078846
	1073.995000	8.078846
	1074.005000	8.069872
	1074.995000	8.069872
	1075.005000	8.060897
	1075.995000	8.060897
	1076.005000	8.051923
	1076.995000	8.051923
	1077.005000	8.042949
	1077.995000	8.042949
	1078.005000	8.033974
	1078.995000	8.033974
	1079.005000	8.025000
	1080.000000	8.025000
	1080.995000	8.025000
	1081.005000	8.033974
	1081.995000	8.033974
	1082.005000	8.042949
	1082.995000	8.042949
	1083.005000	8.051923
	1083.995000	8.051923
	1084.005000	8.060897
	1084.995000	8.060897
	1085.005000	8.069872
	1085.995000	8.069872
	1086.005000	8.078846
	1086.995000	8.078846
	1087.005000	8.087821
	1087.995000	8.087821
	1088.005000	8.096795
	1088.995000	8.096795
	1089.005000	8.105769
	1089.995000	8.105769
	1090.005000	8.114744
	1090.995000	8.114744
	1091.005000	8.123718
	1091.995000	8.123718
	1092.005000	8.132692
	1092.995000	8.132692
	1093.005000	8.141667
	1093.995000	8.141667
	1094.005000	8.150641
	1094.995000	8.150641
	1095.005000	8.159615
	1095.995000	8.159615
	1096.005000	8.168590
	1096.995000	8.168590
	1097.005000	8.177564
	1097.995000	8.177564
	1098.005000	8.186538
	1098.995000	8.186538
	1099.005000	8.195513
	1099.995000	8.195513
	1100.005000	8.204487
	1100.995000	8.204487
	1101.005000	8.213462
	1101.995000	8.213462
	1102.005000	8.222436
	1102.995000	8.222436
	1103.005000	8.231410
	1103.995000	8.231410
	1104.005000	8.240385
	1104.995000	8.240385
	1105.005000	8.249359
	1105.995000	8.249359
	1106.005000	8.258333
	1106.995000	8.258333
	1107.005000	8.267308
	1107.995000	8.267308
	1108.005000	8.276282
	1108.995000	8.276282
	1109.005000	8.285256
	1109.995000	8.285256
	1110.005000	8.294231
	1110.995000	8.294231
	1111.005000	8.303205
	1111.995000	8.303205
	1112.005000	8.312179
	1112.995000	8.312179
	1113.005000	8.321154
	1113.995000	8.321154
	1114.005000	8.330128
	1114.995000	8.330128
	1115.005000	8.339103
	1115.995000	8.339103
	1116.005000	8.348077
	1116.995000	8.348077
	1117.005000	8.357051
	1117.995000	8.357051
	1118.005000	8.366026
	1118.995000	8.366026
	1119.005000	8.375000
	1120.000000	8.375000
	1120.995000	8.375000
	1121.005000	8.366026
	1121.995000	8.366026
	1122.005000	8.357051
	1122.995000	8.357051
	1123.005000	8.348077
	1123.995000	8.348077
	1124.005000	8.339103
	1124.995000	8.339103
	1125.005000	8.330128
	1125.995000	8.330128
	1126.005000	8.321154
	1126.995000	8.321154
	1127.005000	8.312179
	1127.995000	8.312179
	1128.005000	8.303205
	1128.995000	8.303205
	1129.005000	8.294231
	1129.995000	8.294231
	1130.005000	8.285256
	1130.995000	8.285256
	1131.005000	8.276282
	1131.995000	8.276282
	1132.005000	8.267308
	1132.995000	8.267308
	1133.005000	8.258333
	1133.995000	8.258333
	1134.005000	8.249359
	1134.995000	8.249359
	1135.005000	8.240385
	1135.995000	8.240385
	1136.005000	8.231410
	1136.995000	8.231410
	1137.005000	8.222436
	1137.995000	8.222436
	1138.005000	8.213462
	1138.995000	8.213462
	1139.005000	8.204487
	1139.995000	8.204487
	1140.005000	8.195513
	1140.995000	8.195513
	1141.005000	8.186538
	1141.995000	8.186538
	1142.005000	8.177564
	1142.995000	8.177564
	1143.005000	8.168590
	1143.995000	8.168590
	1144.005000	8.159615
	1144.995000	8.159615
	1145.005000	8.150641
	1145.995000	8.150641
	1146.005000	8.141667
	1146.995000	8.141667
	1147.005000	8.132692
	1147.995000	8.132692
	1148.005000	8.123718
	1148.995000	8.123718
	1149.005000	8.114744
	1149.995000	8.114744
	1150.005000	8.105769
	1150.995000	8.105769
	1151.005000	8.096795
	1151.995000	8.096795
	1152.005000	8.087821
	1152.995000	8.087821
	1153.005000	8.078846
	1153.995000	8.078846
	1154.005000	8.069872
	1154.995000	8.069872
	1155.005000	8.060897
	1155.995000	8.060897
	1156.005000	8.051923
	1156.995000	8.051923
	1157.005000	8.042949
	1157.995000	8.042949
	1158.005000	8.033974
	1158.995000	8.033974
	1159.005000	8.025000
	1160.000000	8.025000
	1160.995000	8.025000
	1161.005000	8.033974
	1161.995000	8.033974
	1162.005000	8.042949
	1162.995000	8.042949
	1163.005000	8.051923
	1163.995000	8.051923
	1164.005000	8.060897
	1164.995000	8.060897
	1165.005000	8.069872
	1165.995000	8.069872
	1166.005000	8.078846
	1166.995000	8.078846
	1167.005000	8.087821
	1167.995000	8.087821
	1168.005000	8.096795
	1168.995000	8.096795
	1169.005000	8.105769
	1169.995000	8.105769
	1170.005000	8.114744
	1170.995000	8.114744
	1171.005000	8.123718
	1171.995000	8.123718
	1172.005000	8.132692
	1172.995000	8.132692
	1173.005000	8.141667
	1173.995000	8.141667
	1174.005000	8.150641
	1174.995000	8.150641
	1175.005000	8.159615
	1175.995000	8.159615
	1176.005000	8.168590
	1176.995000	8.168590
	1177.005000	8.177564
	1177.995000	8.177564
	1178.005000	8.186538
	1178.995000	8.186538
	1179.005000	8.195513
	1179.995000	8.195513
	1180.005000	8.204487
	1180.995000	8.204487
	1181.005000	8.213462
	1181.995000	8.213462
	1182.005000	8.222436
	1182.995000	8.222436
	1183.005000	8.231410
	1183.995000	8.231410
	1184.005000	8.240385
	1184.995000	8.240385
	1185.005000	8.249359
	1185.995000	8.249359
	1186.005000	8.258333
	1186.995000	8.258333
	1187.005000	8.267308
	1187.995000	8.267308
	1188.005000	8.276282
	1188.995000	8.276282
	1189.005000	8.285256
	1189.995000	8.285256
	1190.005000	8.294231
	1190.995000	8.294231
	1191.005000	8.303205
	1191.995000	8.303205
	1192.005000	8.312179
	1192.995000	8.312179
	1193.005000	8.321154
	1193.995000	8.321154
	1194.005000	8.330128
	1194.995000	8.330128
	1195.005000	8.339103
	1195.995000	8.339103
	1196.005000	8.348077
	1196.995000	8.348077
	1197.005000	8.357051
	1197.995000	8.357051
	1198.005000	8.366026
	1198.995000	8.366026
	1199.005000	8.375000
	1200.000000	8.375000
	1200.995000	8.375000
	1201.005000	8.366026
	1201.995000	8.366026
	1202.005000	8.357051
	1202.995000	8.357051
	1203.005000	8.348077
	1203.995000	8.348077
	1204.005000	8.339103
	1204.995000	8.339103
	1205.005000	8.330128
	1205.995000	8.330128
	1206.005000	8.321154
	1206.995000	8.321154
	1207.005000	8.312179
	1207.995000	8.312179
	1208.005000	8.303205
	1208.995000	8.303205
	1209.005000	8.294231
	1209.995000	8.294231
	1210.005000	8.285256
	1210.995000	8.285256
	1211.005000	8.276282
	1211.995000	8.276282
	1212.005000	8.267308
	1212.995000	8.267308
	1213.005000	8.258333
	1213.995000	8.258333
	1214.005000	8.249359
	1214.995000	8.249359
	1215.005000	8.240385
	1215.995000	8.240385
	1216.005000	8.231410
	1216.995000	8.231410
	1217.005000	8.222436
	1217.995000	8.222436
	1218.005000	8.213462
	1218.995000	8.213462
	1219.005000	8.204487
	1219.995000	8.204487
	1220.005000	8.195513
	1220.995000	8.195513
	1221.005000	8.186538
	1221.995000	8.186538
	1222.005000	8.177564
	1222.995000	8.177564
	1223.005000	8.168590
	1223.995000	8.168590
	1224.005000	8.159615
	1224.995000	8.159615
	1225.005000	8.150641
	1225.995000	8.150641
	1226.005000	8.141667
	1226.995000	8.141667
	1227.005000	8.132692
	1227.995000	8.132692
	1228.005000	8.123718
	1228.995000	8.123718
	1229.005000	8.114744
	1229.995000	8.114744
	1230.005000	8.105769
	1230.995000	8.105769
	1231.005000	8.096795
	1231.995000	8.096795
	1232.005000	8.087821
	1232.995000	8.087821
	1233.005000	8.078846
	1233.995000	8.078846
	1234.005000	8.069872
	1234.995000	8.069872
	1235.005000	8.060897
	1235.995000	8.060897
	1236.005000	8.051923
	1236.995000	8.051923
	1237.005000	8.042949
	1237.995000	8.042949
	1238.005000	8.033974
	1238.995000	8.033974
	1239.005000	8.025000
	1240.000000	8.025000
	1240.995000	8.025000
	1241.005000	8.033974
	1241.995000	8.033974
	1242.005000	8.042949
	1242.995000	8.042949
	1243.005000	8.051923
	1243.995000	8.051923
	1244.005000	8.060897
	1244.995000	8.060897
	1245.005000	8.069872
	1245.995000	8.069872
	1246.005000	8.078846
	1246.995000	8.078846
	1247.005000	8.087821
	1247.995000	8.087821
	1248.005000	8.096795
	1248.995000	8.096795
	1249.005000	8.105769
	1249.995000	8.105769
	1250.005000	8.114744
	1250.995000	8.114744
	1251.005000	8.123718
	1251.995000	8.123718
	1252.005000	8.132692
	1252.995000	8.132692
	1253.005000	8.141667
	1253.995000	8.141667
	1254.005000	8.150641
	1254.995000	8.150641
	1255.005000	8.159615
	1255.995000	8.159615
	1256.005000	8.168590
	1256.995000	8.168590
	1257.005000	8.177564
	1257.995000	8.177564
	1258.005000	8.186538
	1258.995000	8.186538
	1259.005000	8.195513
	1259.995000	8.195513
	1260.005000	8.204487
	1260.995000	8.204487
	1261.005000	8.213462
	1261.995000	8.213462
	1262.005000	8.222436
	1262.995000	8.222436
	1263.005000	8.231410
	1263.995000	8.231410
	1264.005000	8.240385
	1264.995000	8.240385
	1265.005000	8.249359
	1265.995000	8.249359
	1266.005000	8.258333
	1266.995000	8.258333
	1267.005000	8.267308
	1267.995000	8.267308
	1268.005000	8.276282
	1268.995000	8.276282
	1269.005000	8.285256
	1269.995000	8.285256
	1270.005000	8.294231
	1270.995000	8.294231
	1271.005000	8.303205
	1271.995000	8.303205
	1272.005000	8.312179
	1272.995000	8.312179
	1273.005000	8.321154
	1273.995000	8.321154
	1274.005000	8.330128
	1274.995000	8.330128
	1275.005000	8.339103
	1275.995000	8.339103
	1276.005000	8.348077
	1276.995000	8.348077
	1277.005000	8.357051
	1277.995000	8.357051
	1278.005000	8.366026
	1278.995000	8.366026
	1279.005000	8.375000
	1280.000000	8.375000
	1280.995000	8.375000
	1281.005000	8.366026
	1281.995000	8.366026
	1282.005000	8.357051
	1282.995000	8.357051
	1283.005000	8.348077
	1283.995000	8.348077
	1284.005000	8.339103
	1284.995000	8.339103
	1285.005000	8.330128
	1285.995000	8.330128
	1286.005000	8.321154
	1286.995000	8.321154
	1287.005000	8.312179
	1287.995000	8.312179
	1288.005000	8.303205
	1288.995000	8.303205
	1289.005000	8.294231
	1289.995000	8.294231
	1290.005000	8.285256
	1290.995000	8.285256
	1291.005000	8.276282
	1291.995000	8.276282
	1292.005000	8.267308
	1292.995000	8.267308
	1293.005000	8.258333
	1293.995000	8.258333
	1294.005000	8.249359
	1294.995000	8.249359
	1295.005000	8.240385
	1295.995000	8.240385
	1296.005000	8.231410
	1296.995000	8.231410
	1297.005000	8.222436
	1297.995000	8.222436
	1298.005000	8.213462
	1298.995000	8.213462
	1299.005000	8.204487
	1299.995000	8.204487
	1300.005000	8.195513
	1300.995000	8.195513
	1301.005000	8.186538
	1301.995000	8.186538
	1302.005000	8.177564
	1302.995000	8.177564
	1303.005000	8.168590
	1303.995000	8.168590
	1304.005000	8.159615
	1304.995000	8.159615
	1305.005000	8.150641
	1305.995000	8.150641
	1306.005000	8.141667
	1306.995000	8.141667
	1307.005000	8.132692
	1307.995000	8.132692
	1308.005000	8.123718
	1308.995000	8.123718
	1309.005000	8.114744
	1309.995000	8.114744
	1310.005000	8.105769
	1310.995000	8.105769
	1311.005000	8.096795
	1311.995000	8.096795
	1312.005000	8.087821
	1312.995000	8.087821
	1313.005000	8.078846
	1313.995000	8.078846
	1314.005000	8.069872
	1314.995000	8.069872
	1315.005000	8.060897
	1315.995000	8.060897
	1316.005000	8.051923
	1316.995000	8.051923
	1317.005000	8.042949
	1317.995000	8.042949
	1318.005000	8.033974
	1318.995000	8.033974
	1319.005000	8.025000
	1320.000000	8.025000
	1320.995000	8.025000
	1321.005000	8.033974
	1321.995000	8.033974
	1322.005000	8.042949
	1322.995000	8.042949
	1323.005000	8.051923
	1323.995000	8.051923
	1324.005000	8.060897
	1324.995000	8.060897
	1325.005000	8.069872
	1325.995000	8.069872
	1326.005000	8.078846
	1326.995000	8.078846
	1327.005000	8.087821
	1327.995000	8.087821
	1328.005000	8.096795
	1328.995000	8.096795
	1329.005000	8.105769
	1329.995000	8.105769
	1330.005000	8.114744
	1330.995000	8.114744
	1331.005000	8.123718
	1331.995000	8.123718
	1332.005000	8.132692
	1332.995000	8.132692
	1333.005000	8.141667
	1333.995000	8.141667
	1334.005000	8.150641
	1334.995000	8.150641
	1335.005000	8.159615
	1335.995000	8.159615
	1336.005000	8.168590
	1336.995000	8.168590
	1337.005000	8.177564
	1337.995000	8.177564
	1338.005000	8.186538
	1338.995000	8.186538
	1339.005000	8.195513
	1339.995000	8.195513
	1340.005000	8.204487
	1340.995000	8.204487
	1341.005000	8.213462
	1341.995000	8.213462
	1342.005000	8.222436
	1342.995000	8.222436
	1343.005000	8.231410
	1343.995000	8.231410
	1344.005000	8.240385
	1344.995000	8.240385
	1345.005000	8.249359
	1345.995000	8.249359
	1346.005000	8.258333
	1346.995000	8.258333
	1347.005000	8.267308
	1347.995000	8.267308
	1348.005000	8.276282
	1348.995000	8.276282
	1349.005000	8.285256
	1349.995000	8.285256
	1350.005000	8.294231
	1350.995000	8.294231
	1351.005000	8.303205
	1351.995000	8.303205
	1352.005000	8.312179
	1352.995000	8.312179
	1353.005000	8.321154
	1353.995000	8.321154
	1354.005000	8.330128
	1354.995000	8.330128
	1355.005000	8.339103
	1355.995000	8.339103
	1356.005000	8.348077
	1356.995000	8.348077
	1357.005000	8.357051
	1357.995000	8.357051
	1358.005000	8.366026
	1358.995000	8.366026
	1359.005000	8.375000
	1360.000000	8.375000
	1360.995000	8.375000
	1361.005000	8.366026
	1361.995000	8.366026
	1362.005000	8.357051
	1362.995000	8.357051
	1363.005000	8.348077
	1363.995000	8.348077
	1364.005000	8.339103
	1364.995000	8.339103
	1365.005000	8.330128
	1365.995000	8.330128
	1366.005000	8.321154
	1366.995000	8.321154
	1367.005000	8.312179
	1367.995000	8.312179
	1368.005000	8.303205
	1368.995000	8.303205
	1369.005000	8.294231
	1369.995000	8.294231
	1370.005000	8.285256
	1370.995000	8.285256
	1371.005000	8.276282
	1371.995000	8.276282
	1372.005000	8.267308
	1372.995000	8.267308
	1373.005000	8.258333
	1373.995000	8.258333
	1374.005000	8.249359
	1374.995000	8.249359
	1375.005000	8.240385
	1375.995000	8.240385
	1376.005000	8.231410
	1376.995000	8.231410
	1377.005000	8.222436
	1377.995000	8.222436
	1378.005000	8.213462
	1378.995000	8.213462
	1379.005000	8.204487
	1379.995000	8.204487
	1380.005000	8.195513
	1380.995000	8.195513
	1381.005000	8.186538
	1381.995000	8.186538
	1382.005000	8.177564
	1382.995000	8.177564
	1383.005000	8.168590
	1383.995000	8.168590
	1384.005000	8.159615
	1384.995000	8.159615
	1385.005000	8.150641
	1385.995000	8.150641
	1386.005000	8.141667
	1386.995000	8.141667
	1387.005000	8.132692
	1387.995000	8.132692
	1388.005000	8.123718
	1388.995000	8.123718
	1389.005000	8.114744
	1389.995000	8.114744
	1390.005000	8.105769
	1390.995000	8.105769
	1391.005000	8.096795
	1391.995000	8.096795
	1392.005000	8.087821
	1392.995000	8.087821
	1393.005000	8.078846
	1393.995000	8.078846
	1394.005000	8.069872
	1394.995000	8.069872
	1395.005000	8.060897
	1395.995000	8.060897
	1396.005000	8.051923
	1396.995000	8.051923
	1397.005000	8.042949
	1397.995000	8.042949
	1398.005000	8.033974
	1398.995000	8.033974
	1399.005000	8.025000
	1400.000000	8.025000
	1400.995000	8.025000
	1401.005000	8.033974
	1401.995000	8.033974
	1402.005000	8.042949
	1402.995000	8.042949
	1403.005000	8.051923
	1403.995000	8.051923
	1404.005000	8.060897
	1404.995000	8.060897
	1405.005000	8.069872
	1405.995000	8.069872
	1406.005000	8.078846
	1406.995000	8.078846
	1407.005000	8.087821
	1407.995000	8.087821
	1408.005000	8.096795
	1408.995000	8.096795
	1409.005000	8.105769
	1409.995000	8.105769
	1410.005000	8.114744
	1410.995000	8.114744
	1411.005000	8.123718
	1411.995000	8.123718
	1412.005000	8.132692
	1412.995000	8.132692
	1413.005000	8.141667
	1413.995000	8.141667
	1414.005000	8.150641
	1414.995000	8.150641
	1415.005000	8.159615
	1415.995000	8.159615
	1416.005000	8.168590
	1416.995000	8.168590
	1417.005000	8.177564
	1417.995000	8.177564
	1418.005000	8.186538
	1418.995000	8.186538
	1419.005000	8.195513
	1419.995000	8.195513
	1420.005000	8.204487
	1420.995000	8.204487
	1421.005000	8.213462
	1421.995000	8.213462
	1422.005000	8.222436
	1422.995000	8.222436
	1423.005000	8.231410
	1423.995000	8.231410
	1424.005000	8.240385
	1424.995000	8.240385
	1425.005000	8.249359
	1425.995000	8.249359
	1426.005000	8.258333
	1426.995000	8.258333
	1427.005000	8.267308
	1427.995000	8.267308
	1428.005000	8.276282
	1428.995000	8.276282
	1429.005000	8.285256
	1429.995000	8.285256
	1430.005000	8.294231
	1430.995000	8.294231
	1431.005000	8.303205
	1431.995000	8.303205
	1432.005000	8.312179
	1432.995000	8.312179
	1433.005000	8.321154
	1433.995000	8.321154
	1434.005000	8.330128
	1434.995000	8.330128
	1435.005000	8.339103
	1435.995000	8.339103
	1436.005000	8.348077
	1436.995000	8.348077
	1437.005000	8.357051
	1437.995000	8.357051
	1438.005000	8.366026
	1438.995000	8.366026
	1439.005000	8.375000
	1440.000000	8.375000
	1440.995000	8.375000
	1441.005000	8.366026
	1441.995000	8.366026
	1442.005000	8.357051
	1442.995000	8.357051
	1443.005000	8.348077
	1443.995000	8.348077
	1444.005000	8.339103
	1444.995000	8.339103
	1445.005000	8.330128
	1445.995000	8.330128
	1446.005000	8.321154
	1446.995000	8.321154
	1447.005000	8.312179
	1447.995000	8.312179
	1448.005000	8.303205
	1448.995000	8.303205
	1449.005000	8.294231
	1449.995000	8.294231
	1450.005000	8.285256
	1450.995000	8.285256
	1451.005000	8.276282
	1451.995000	8.276282
	1452.005000	8.267308
	1452.995000	8.267308
	1453.005000	8.258333
	1453.995000	8.258333
	1454.005000	8.249359
	1454.995000	8.249359
	1455.005000	8.240385
	1455.995000	8.240385
	1456.005000	8.231410
	1456.995000	8.231410
	1457.005000	8.222436
	1457.995000	8.222436
	1458.005000	8.213462
	1458.995000	8.213462
	1459.005000	8.204487
	1459.995000	8.204487
	1460.005000	8.195513
	1460.995000	8.195513
	1461.005000	8.186538
	1461.995000	8.186538
	1462.005000	8.177564
	1462.995000	8.177564
	1463.005000	8.168590
	1463.995000	8.168590
	1464.005000	8.159615
	1464.995000	8.159615
	1465.005000	8.150641
	1465.995000	8.150641
	1466.005000	8.141667
	1466.995000	8.141667
	1467.005000	8.132692
	1467.995000	8.132692
	1468.005000	8.123718
	1468.995000	8.123718
	1469.005000	8.114744
	1469.995000	8.114744
	1470.005000	8.105769
	1470.995000	8.105769
	1471.005000	8.096795
	1471.995000	8.096795
	1472.005000	8.087821
	1472.995000	8.087821
	1473.005000	8.078846
	1473.995000	8.078846
	1474.005000	8.069872
	1474.995000	8.069872
	1475.005000	8.060897
	1475.995000	8.060897
	1476.005000	8.051923
	1476.995000	8.051923
	1477.005000	8.042949
	1477.995000	8.042949
	1478.005000	8.033974
	1478.995000	8.033974
	1479.005000	8.025000
	1480.000000	8.025000
	1480.995000	8.025000
	1481.005000	8.033974
	1481.995000	8.033974
	1482.005000	8.042949
	1482.995000	8.042949
	1483.005000	8.051923
	1483.995000	8.051923
	1484.005000	8.060897
	1484.995000	8.060897
	1485.005000	8.069872
	1485.995000	8.069872
	1486.005000	8.078846
	1486.995000	8.078846
	1487.005000	8.087821
	1487.995000	8.087821
	1488.005000	8.096795
	1488.995000	8.096795
	1489.005000	8.105769
	1489.995000	8.105769
	1490.005000	8.114744
	1490.995000	8.114744
	1491.005000	8.123718
	1491.995000	8.123718
	1492.005000	8.132692
	1492.995000	8.132692
	1493.005000	8.141667
	1493.995000	8.141667
	1494.005000	8.150641
	1494.995000	8.150641
	1495.005000	8.159615
	1495.995000	8.159615
	1496.005000	8.168590
	1496.995000	8.168590
	1497.005000	8.177564
	1497.995000	8.177564
	1498.005000	8.186538
	1498.995000	8.186538
	1499.005000	8.195513
	1499.995000	8.195513
	1500.005000	8.204487
	1500.995000	8.204487
	1501.005000	8.213462
	1501.995000	8.213462
	1502.005000	8.222436
	1502.995000	8.222436
	1503.005000	8.231410
	1503.995000	8.231410
	1504.005000	8.240385
	1504.995000	8.240385
	1505.005000	8.249359
	1505.995000	8.249359
	1506.005000	8.258333
	1506.995000	8.258333
	1507.005000	8.267308
	1507.995000	8.267308
	1508.005000	8.276282
	1508.995000	8.276282
	1509.005000	8.285256
	1509.995000	8.285256
	1510.005000	8.294231
	1510.995000	8.294231
	1511.005000	8.303205
	1511.995000	8.303205
	1512.005000	8.312179
	1512.995000	8.312179
	1513.005000	8.321154
	1513.995000	8.321154
	1514.005000	8.330128
	1514.995000	8.330128
	1515.005000	8.339103
	1515.995000	8.339103
	1516.005000	8.348077
	1516.995000	8.348077
	1517.005000	8.357051
	1517.995000	8.357051
	1518.005000	8.366026
	1518.995000	8.366026
	1519.005000	8.375000
	1520.000000	8.375000
	1520.995000	8.375000
	1521.005000	8.366026
	1521.995000	8.366026
	1522.005000	8.357051
	1522.995000	8.357051
	1523.005000	8.348077
	1523.995000	8.348077
	1524.005000	8.339103
	1524.995000	8.339103
	1525.005000	8.330128
	1525.995000	8.330128
	1526.005000	8.321154
	1526.995000	8.321154
	1527.005000	8.312179
	1527.995000	8.312179
	1528.005000	8.303205
	1528.995000	8.303205
	1529.005000	8.294231
	1529.995000	8.294231
	1530.005000	8.285256
	1530.995000	8.285256
	1531.005000	8.276282
	1531.995000	8.276282
	1532.005000	8.267308
	1532.995000	8.267308
	1533.005000	8.258333
	1533.995000	8.258333
	1534.005000	8.249359
	1534.995000	8.249359
	1535.005000	8.240385
	1535.995000	8.240385
	1536.005000	8.231410
	1536.995000	8.231410
	1537.005000	8.222436
	1537.995000	8.222436
	1538.005000	8.213462
	1538.995000	8.213462
	1539.005000	8.204487
	1539.995000	8.204487
	1540.005000	8.195513
	1540.995000	8.195513
	1541.005000	8.186538
	1541.995000	8.186538
	1542.005000	8.177564
	1542.995000	8.177564
	1543.005000	8.168590
	1543.995000	8.168590
	1544.005000	8.159615
	1544.995000	8.159615
	1545.005000	8.150641
	1545.995000	8.150641
	1546.005000	8.141667
	1546.995000	8.141667
	1547.005000	8.132692
	1547.995000	8.132692
	1548.005000	8.123718
	1548.995000	8.123718
	1549.005000	8.114744
	1549.995000	8.114744
	1550.005000	8.105769
	1550.995000	8.105769
	1551.005000	8.096795
	1551.995000	8.096795
	1552.005000	8.087821
	1552.995000	8.087821
	1553.005000	8.078846
	1553.995000	8.078846
	1554.005000	8.069872
	1554.995000	8.069872
	1555.005000	8.060897
	1555.995000	8.060897
	1556.005000	8.051923
	1556.995000	8.051923
	1557.005000	8.042949
	1557.995000	8.042949
	1558.005000	8.033974
	1558.995000	8.033974
	1559.005000	8.025000
	1560.000000	8.025000
	1560.995000	8.025000
	1561.005000	8.033974
	1561.995000	8.033974
	1562.005000	8.042949
	1562.995000	8.042949
	1563.005000	8.051923
	1563.995000	8.051923
	1564.005000	8.060897
	1564.995000	8.060897
	1565.005000	8.069872
	1565.995000	8.069872
	1566.005000	8.078846
	1566.995000	8.078846
	1567.005000	8.087821
	1567.995000	8.087821
	1568.005000	8.096795
	1568.995000	8.096795
	1569.005000	8.105769
	1569.995000	8.105769
	1570.005000	8.114744
	1570.995000	8.114744
	1571.005000	8.123718
	1571.995000	8.123718
	1572.005000	8.132692
	1572.995000	8.132692
	1573.005000	8.141667
	1573.995000	8.141667
	1574.005000	8.150641
	1574.995000	8.150641
	1575.005000	8.159615
	1575.995000	8.159615
	1576.005000	8.168590
	1576.995000	8.168590
	1577.005000	8.177564
	1577.995000	8.177564
	1578.005000	8.186538
	1578.995000	8.186538
	1579.005000	8.195513
	1579.995000	8.195513
	1580.005000	8.204487
	1580.995000	8.204487
	1581.005000	8.213462
	1581.995000	8.213462
	1582.005000	8.222436
	1582.995000	8.222436
	1583.005000	8.231410
	1583.995000	8.231410
	1584.005000	8.240385
	1584.995000	8.240385
	1585.005000	8.249359
	1585.995000	8.249359
	1586.005000	8.258333
	1586.995000	8.258333
	1587.005000	8.267308
	1587.995000	8.267308
	1588.005000	8.276282
	1588.995000	8.276282
	1589.005000	8.285256
	1589.995000	8.285256
	1590.005000	8.294231
	1590.995000	8.294231
	1591.005000	8.303205
	1591.995000	8.303205
	1592.005000	8.312179
	1592.995000	8.312179
	1593.005000	8.321154
	1593.995000	8.321154
	1594.005000	8.330128
	1594.995000	8.330128
	1595.005000	8.339103
	1595.995000	8.339103
	1596.005000	8.348077
	1596.995000	8.348077
	1597.005000	8.357051
	1597.995000	8.357051
	1598.005000	8.366026
	1598.995000	8.366026
	1599.005000	8.375000
	1600.000000	8.375000
	1600.995000	8.375000
	1601.005000	8.366026
	1601.995000	8.366026
	1602.005000	8.357051
	1602.995000	8.357051
	1603.005000	8.348077
	1603.995000	8.348077
	1604.005000	8.339103
	1604.995000	8.339103
	1605.005000	8.330128
	1605.995000	8.330128
	1606.005000	8.321154
	1606.995000	8.321154
	1607.005000	8.312179
	1607.995000	8.312179
	1608.005000	8.303205
	1608.995000	8.303205
	1609.005000	8.294231
	1609.995000	8.294231
	1610.005000	8.285256
	1610.995000	8.285256
	1611.005000	8.276282
	1611.995000	8.276282
	1612.005000	8.267308
	1612.995000	8.267308
	1613.005000	8.258333
	1613.995000	8.258333
	1614.005000	8.249359
	1614.995000	8.249359
	1615.005000	8.240385
	1615.995000	8.240385
	1616.005000	8.231410
	1616.995000	8.231410
	1617.005000	8.222436
	1617.995000	8.222436
	1618.005000	8.213462
	1618.995000	8.213462
	1619.005000	8.204487
	1619.995000	8.204487
	1620.005000	8.195513
	1620.995000	8.195513
	1621.005000	8.186538
	1621.995000	8.186538
	1622.005000	8.177564
	1622.995000	8.177564
	1623.005000	8.168590
	1623.995000	8.168590
	1624.005000	8.159615
	1624.995000	8.159615
	1625.005000	8.150641
	1625.995000	8.150641
	1626.005000	8.141667
	1626.995000	8.141667
	1627.005000	8.132692
	1627.995000	8.132692
	1628.005000	8.123718
	1628.995000	8.123718
	1629.005000	8.114744
	1629.995000	8.114744
	1630.005000	8.105769
	1630.995000	8.105769
	1631.005000	8.096795
	1631.995000	8.096795
	1632.005000	8.087821
	1632.995000	8.087821
	1633.005000	8.078846
	1633.995000	8.078846
	1634.005000	8.069872
	1634.995000	8.069872
	1635.005000	8.060897
	1635.995000	8.060897
	1636.005000	8.051923
	1636.995000	8.051923
	1637.005000	8.042949
	1637.995000	8.042949
	1638.005000	8.033974
	1638.995000	8.033974
	1639.005000	8.025000
	1640.000000	8.025000
	1640.995000	8.025000
	1641.005000	8.033974
	1641.995000	8.033974
	1642.005000	8.042949
	1642.995000	8.042949
	1643.005000	8.051923
	1643.995000	8.051923
	1644.005000	8.060897
	1644.995000	8.060897
	1645.005000	8.069872
	1645.995000	8.069872
	1646.005000	8.078846
	1646.995000	8.078846
	1647.005000	8.087821
	1647.995000	8.087821
	1648.005000	8.096795
	1648.995000	8.096795
	1649.005000	8.105769
	1649.995000	8.105769
	1650.005000	8.114744
	1650.995000	8.114744
	1651.005000	8.123718
	1651.995000	8.123718
	1652.005000	8.132692
	1652.995000	8.132692
	1653.005000	8.141667
	1653.995000	8.141667
	1654.005000	8.150641
	1654.995000	8.150641
	1655.005000	8.159615
	1655.995000	8.159615
	1656.005000	8.168590
	1656.995000	8.168590
	1657.005000	8.177564
	1657.995000	8.177564
	1658.005000	8.186538
	1658.995000	8.186538
	1659.005000	8.195513
	1659.995000	8.195513
	1660.005000	8.204487
	1660.995000	8.204487
	1661.005000	8.213462
	1661.995000	8.213462
	1662.005000	8.222436
	1662.995000	8.222436
	1663.005000	8.231410
	1663.995000	8.231410
	1664.005000	8.240385
	1664.995000	8.240385
	1665.005000	8.249359
	1665.995000	8.249359
	1666.005000	8.258333
	1666.995000	8.258333
	1667.005000	8.267308
	1667.995000	8.267308
	1668.005000	8.276282
	1668.995000	8.276282
	1669.005000	8.285256
	1669.995000	8.285256
	1670.005000	8.294231
	1670.995000	8.294231
	1671.005000	8.303205
	1671.995000	8.303205
	1672.005000	8.312179
	1672.995000	8.312179
	1673.005000	8.321154
	1673.995000	8.321154
	1674.005000	8.330128
	1674.995000	8.330128
	1675.005000	8.339103
	1675.995000	8.339103
	1676.005000	8.348077
	1676.995000	8.348077
	1677.005000	8.357051
	1677.995000	8.357051
	1678.005000	8.366026
	1678.995000	8.366026
	1679.005000	8.375000
	1680.000000	8.375000
	1680.995000	8.375000
	1681.005000	8.366026
	1681.995000	8.366026
	1682.005000	8.357051
	1682.995000	8.357051
	1683.005000	8.348077
	1683.995000	8.348077
	1684.005000	8.339103
	1684.995000	8.339103
	1685.005000	8.330128
	1685.995000	8.330128
	1686.005000	8.321154
	1686.995000	8.321154
	1687.005000	8.312179
	1687.995000	8.312179
	1688.005000	8.303205
	1688.995000	8.303205
	1689.005000	8.294231
	1689.995000	8.294231
	1690.005000	8.285256
	1690.995000	8.285256
	1691.005000	8.276282
	1691.995000	8.276282
	1692.005000	8.267308
	1692.995000	8.267308
	1693.005000	8.258333
	1693.995000	8.258333
	1694.005000	8.249359
	1694.995000	8.249359
	1695.005000	8.240385
	1695.995000	8.240385
	1696.005000	8.231410
	1696.995000	8.231410
	1697.005000	8.222436
	1697.995000	8.222436
	1698.005000	8.213462
	1698.995000	8.213462
	1699.005000	8.204487
	1699.995000	8.204487
	1700.005000	8.195513
	1700.995000	8.195513
	1701.005000	8.186538
	1701.995000	8.186538
	1702.005000	8.177564
	1702.995000	8.177564
	1703.005000	8.168590
	1703.995000	8.168590
	1704.005000	8.159615
	1704.995000	8.159615
	1705.005000	8.150641
	1705.995000	8.150641
	1706.005000	8.141667
	1706.995000	8.141667
	1707.005000	8.132692
	1707.995000	8.132692
	1708.005000	8.123718
	1708.995000	8.123718
	1709.005000	8.114744
	1709.995000	8.114744
	1710.005000	8.105769
	1710.995000	8.105769
	1711.005000	8.096795
	1711.995000	8.096795
	1712.005000	8.087821
	1712.995000	8.087821
	1713.005000	8.078846
	1713.995000	8.078846
	1714.005000	8.069872
	1714.995000	8.069872
	1715.005000	8.060897
	1715.995000	8.060897
	1716.005000	8.051923
	1716.995000	8.051923
	1717.005000	8.042949
	1717.995000	8.042949
	1718.005000	8.033974
	1718.995000	8.033974
	1719.005000	8.025000
	1720.000000	8.025000
